Theta [deg.]  Phi   [deg.]  Abs(Grlz)[dBi   ]   Abs(Horiz)[dBi   ]  Phase(Horiz)[deg.]  Abs(Verti)[dBi   ]  Phase(Verti)[deg.]  Ax.Ratio[dB    ]    
------------------------------------------------------------------------------------------------------------------------------------------------------
   0.000           0.000            2.004e+00          -1.060e+02              99.876           2.004e+00             164.476           4.000e+01     
   1.000           0.000            2.004e+00          -5.389e+01             249.901           2.004e+00             164.476           4.000e+01     
   2.000           0.000            2.002e+00          -4.787e+01             249.933           2.002e+00             164.477           4.000e+01     
   3.000           0.000            2.000e+00          -4.436e+01             249.941           2.000e+00             164.477           4.000e+01     
   4.000           0.000            1.996e+00          -4.188e+01             249.943           1.996e+00             164.479           4.000e+01     
   5.000           0.000            1.992e+00          -3.995e+01             249.941           1.992e+00             164.480           4.000e+01     
   6.000           0.000            1.986e+00          -3.839e+01             249.936           1.986e+00             164.482           4.000e+01     
   7.000           0.000            1.980e+00          -3.708e+01             249.930           1.979e+00             164.484           3.908e+01     
   8.000           0.000            1.972e+00          -3.594e+01             249.922           1.972e+00             164.487           3.794e+01     
   9.000           0.000            1.964e+00          -3.495e+01             249.912           1.963e+00             164.489           3.694e+01     
  10.000           0.000            1.954e+00          -3.407e+01             249.901           1.953e+00             164.493           3.606e+01     
  11.000           0.000            1.944e+00          -3.329e+01             249.888           1.943e+00             164.496           3.526e+01     
  12.000           0.000            1.933e+00          -3.257e+01             249.874           1.931e+00             164.500           3.453e+01     
  13.000           0.000            1.920e+00          -3.193e+01             249.858           1.919e+00             164.504           3.387e+01     
  14.000           0.000            1.907e+00          -3.134e+01             249.841           1.905e+00             164.509           3.327e+01     
  15.000           0.000            1.893e+00          -3.079e+01             249.823           1.891e+00             164.513           3.271e+01     
  16.000           0.000            1.878e+00          -3.029e+01             249.802           1.875e+00             164.519           3.220e+01     
  17.000           0.000            1.862e+00          -2.983e+01             249.781           1.859e+00             164.524           3.172e+01     
  18.000           0.000            1.845e+00          -2.940e+01             249.757           1.842e+00             164.530           3.127e+01     
  19.000           0.000            1.827e+00          -2.900e+01             249.732           1.824e+00             164.536           3.085e+01     
  20.000           0.000            1.809e+00          -2.863e+01             249.705           1.805e+00             164.542           3.047e+01     
  21.000           0.000            1.789e+00          -2.829e+01             249.676           1.785e+00             164.549           3.010e+01     
  22.000           0.000            1.769e+00          -2.797e+01             249.646           1.765e+00             164.556           2.976e+01     
  23.000           0.000            1.748e+00          -2.767e+01             249.614           1.743e+00             164.563           2.944e+01     
  24.000           0.000            1.726e+00          -2.739e+01             249.579           1.721e+00             164.570           2.915e+01     
  25.000           0.000            1.704e+00          -2.713e+01             249.543           1.698e+00             164.578           2.887e+01     
  26.000           0.000            1.681e+00          -2.690e+01             249.504           1.675e+00             164.586           2.860e+01     
  27.000           0.000            1.657e+00          -2.667e+01             249.463           1.650e+00             164.595           2.836e+01     
  28.000           0.000            1.632e+00          -2.647e+01             249.420           1.626e+00             164.603           2.813e+01     
  29.000           0.000            1.607e+00          -2.628e+01             249.374           1.600e+00             164.612           2.791e+01     
  30.000           0.000            1.581e+00          -2.610e+01             249.325           1.574e+00             164.621           2.771e+01     
  31.000           0.000            1.555e+00          -2.594e+01             249.274           1.547e+00             164.631           2.753e+01     
  32.000           0.000            1.528e+00          -2.580e+01             249.220           1.520e+00             164.640           2.735e+01     
  33.000           0.000            1.500e+00          -2.566e+01             249.163           1.492e+00             164.650           2.719e+01     
  34.000           0.000            1.472e+00          -2.554e+01             249.103           1.463e+00             164.660           2.705e+01     
  35.000           0.000            1.443e+00          -2.543e+01             249.039           1.435e+00             164.670           2.691e+01     
  36.000           0.000            1.414e+00          -2.534e+01             248.972           1.405e+00             164.681           2.679e+01     
  37.000           0.000            1.385e+00          -2.526e+01             248.901           1.376e+00             164.691           2.668e+01     
  38.000           0.000            1.355e+00          -2.518e+01             248.827           1.345e+00             164.702           2.657e+01     
  39.000           0.000            1.325e+00          -2.512e+01             248.748           1.315e+00             164.713           2.649e+01     
  40.000           0.000            1.294e+00          -2.507e+01             248.664           1.284e+00             164.724           2.641e+01     
  41.000           0.000            1.264e+00          -2.504e+01             248.576           1.253e+00             164.736           2.634e+01     
  42.000           0.000            1.233e+00          -2.501e+01             248.483           1.222e+00             164.747           2.628e+01     
  43.000           0.000            1.201e+00          -2.499e+01             248.384           1.191e+00             164.759           2.624e+01     
  44.000           0.000            1.170e+00          -2.499e+01             248.280           1.159e+00             164.771           2.621e+01     
  45.000           0.000            1.138e+00          -2.500e+01             248.169           1.128e+00             164.783           2.618e+01     
  46.000           0.000            1.106e+00          -2.501e+01             248.052           1.096e+00             164.795           2.617e+01     
  47.000           0.000            1.075e+00          -2.504e+01             247.928           1.064e+00             164.807           2.617e+01     
  48.000           0.000            1.043e+00          -2.508e+01             247.796           1.032e+00             164.819           2.618e+01     
  49.000           0.000            1.011e+00          -2.513e+01             247.657           1.000e+00             164.831           2.620e+01     
  50.000           0.000            9.793e-01          -2.520e+01             247.508           9.688e-01             164.844           2.624e+01     
  51.000           0.000            9.476e-01          -2.527e+01             247.350           9.373e-01             164.856           2.628e+01     
  52.000           0.000            9.161e-01          -2.535e+01             247.181           9.059e-01             164.869           2.634e+01     
  53.000           0.000            8.848e-01          -2.545e+01             247.002           8.747e-01             164.881           2.641e+01     
  54.000           0.000            8.536e-01          -2.556e+01             246.810           8.437e-01             164.894           2.649e+01     
  55.000           0.000            8.227e-01          -2.568e+01             246.604           8.130e-01             164.906           2.659e+01     
  56.000           0.000            7.921e-01          -2.582e+01             246.385           7.826e-01             164.919           2.670e+01     
  57.000           0.000            7.618e-01          -2.596e+01             246.149           7.526e-01             164.931           2.682e+01     
  58.000           0.000            7.320e-01          -2.612e+01             245.896           7.230e-01             164.944           2.696e+01     
  59.000           0.000            7.025e-01          -2.630e+01             245.624           6.938e-01             164.956           2.711e+01     
  60.000           0.000            6.735e-01          -2.649e+01             245.330           6.651e-01             164.968           2.728e+01     
  61.000           0.000            6.449e-01          -2.669e+01             245.012           6.369e-01             164.981           2.746e+01     
  62.000           0.000            6.169e-01          -2.691e+01             244.669           6.093e-01             164.993           2.766e+01     
  63.000           0.000            5.895e-01          -2.715e+01             244.295           5.822e-01             165.005           2.788e+01     
  64.000           0.000            5.628e-01          -2.740e+01             243.889           5.558e-01             165.017           2.812e+01     
  65.000           0.000            5.366e-01          -2.767e+01             243.445           5.301e-01             165.029           2.838e+01     
  66.000           0.000            5.112e-01          -2.796e+01             242.959           5.050e-01             165.041           2.866e+01     
  67.000           0.000            4.865e-01          -2.828e+01             242.425           4.807e-01             165.052           2.897e+01     
  68.000           0.000            4.626e-01          -2.861e+01             241.836           4.572e-01             165.064           2.930e+01     
  69.000           0.000            4.394e-01          -2.897e+01             241.183           4.344e-01             165.075           2.966e+01     
  70.000           0.000            4.171e-01          -2.935e+01             240.456           4.126e-01             165.086           3.005e+01     
  71.000           0.000            3.957e-01          -2.976e+01             239.644           3.916e-01             165.097           3.047e+01     
  72.000           0.000            3.752e-01          -3.020e+01             238.730           3.714e-01             165.108           3.093e+01     
  73.000           0.000            3.557e-01          -3.067e+01             237.696           3.523e-01             165.118           3.143e+01     
  74.000           0.000            3.371e-01          -3.118e+01             236.519           3.340e-01             165.129           3.198e+01     
  75.000           0.000            3.195e-01          -3.173e+01             235.169           3.168e-01             165.139           3.258e+01     
  76.000           0.000            3.030e-01          -3.232e+01             233.606           3.006e-01             165.149           3.325e+01     
  77.000           0.000            2.875e-01          -3.295e+01             231.782           2.854e-01             165.158           3.398e+01     
  78.000           0.000            2.731e-01          -3.363e+01             229.631           2.713e-01             165.167           3.480e+01     
  79.000           0.000            2.598e-01          -3.437e+01             227.067           2.583e-01             165.176           3.572e+01     
  80.000           0.000            2.476e-01          -3.517e+01             223.974           2.463e-01             165.185           3.677e+01     
  81.000           0.000            2.366e-01          -3.602e+01             220.197           2.355e-01             165.194           3.799e+01     
  82.000           0.000            2.267e-01          -3.692e+01             215.531           2.259e-01             165.202           3.942e+01     
  83.000           0.000            2.180e-01          -3.786e+01             209.715           2.174e-01             165.210           4.000e+01     
  84.000           0.000            2.105e-01          -3.880e+01             202.444           2.100e-01             165.217           4.000e+01     
  85.000           0.000            2.043e-01          -3.965e+01             193.441           2.038e-01             165.225           4.000e+01     
  86.000           0.000            1.992e-01          -4.033e+01             182.629           1.988e-01             165.232           4.000e+01     
  87.000           0.000            1.954e-01          -4.068e+01             170.393           1.950e-01             165.238           4.000e+01     
  88.000           0.000            1.928e-01          -4.063e+01             157.684           1.925e-01             165.245           4.000e+01     
  89.000           0.000            1.915e-01          -4.017e+01             145.688           1.911e-01             165.251           4.000e+01     
  90.000           0.000            1.914e-01          -3.943e+01             135.252           1.909e-01             165.257           4.000e+01     
  91.000           0.000            1.925e-01          -3.853e+01             126.634           1.919e-01             165.262           4.000e+01     
  92.000           0.000            1.949e-01          -3.756e+01             119.699           1.942e-01             165.267           4.000e+01     
  93.000           0.000            1.985e-01          -3.661e+01             114.152           1.976e-01             165.272           3.898e+01     
  94.000           0.000            2.034e-01          -3.570e+01             109.695           2.023e-01             165.276           3.757e+01     
  95.000           0.000            2.095e-01          -3.484e+01             106.078           2.081e-01             165.280           3.637e+01     
  96.000           0.000            2.168e-01          -3.403e+01             103.108           2.151e-01             165.284           3.532e+01     
  97.000           0.000            2.253e-01          -3.328e+01             100.641           2.233e-01             165.288           3.439e+01     
  98.000           0.000            2.350e-01          -3.259e+01              98.565           2.327e-01             165.291           3.356e+01     
  99.000           0.000            2.458e-01          -3.194e+01              96.802           2.432e-01             165.294           3.282e+01     
 100.000           0.000            2.578e-01          -3.134e+01              95.288           2.548e-01             165.296           3.214e+01     
 101.000           0.000            2.710e-01          -3.078e+01              93.977           2.676e-01             165.299           3.152e+01     
 102.000           0.000            2.853e-01          -3.026e+01              92.832           2.814e-01             165.301           3.096e+01     
 103.000           0.000            3.006e-01          -2.978e+01              91.826           2.964e-01             165.302           3.044e+01     
 104.000           0.000            3.171e-01          -2.932e+01              90.935           3.124e-01             165.304           2.996e+01     
 105.000           0.000            3.346e-01          -2.889e+01              90.141           3.294e-01             165.305           2.952e+01     
 106.000           0.000            3.531e-01          -2.849e+01              89.431           3.474e-01             165.306           2.911e+01     
 107.000           0.000            3.725e-01          -2.812e+01              88.792           3.664e-01             165.306           2.873e+01     
 108.000           0.000            3.930e-01          -2.777e+01              88.215           3.863e-01             165.307           2.837e+01     
 109.000           0.000            4.143e-01          -2.743e+01              87.691           4.072e-01             165.307           2.805e+01     
 110.000           0.000            4.366e-01          -2.712e+01              87.214           4.290e-01             165.307           2.774e+01     
 111.000           0.000            4.597e-01          -2.683e+01              86.778           4.516e-01             165.306           2.746e+01     
 112.000           0.000            4.837e-01          -2.656e+01              86.378           4.751e-01             165.306           2.720e+01     
 113.000           0.000            5.084e-01          -2.630e+01              86.011           4.993e-01             165.305           2.695e+01     
 114.000           0.000            5.339e-01          -2.606e+01              85.673           5.243e-01             165.304           2.673e+01     
 115.000           0.000            5.601e-01          -2.583e+01              85.360           5.501e-01             165.303           2.652e+01     
 116.000           0.000            5.869e-01          -2.562e+01              85.070           5.765e-01             165.302           2.633e+01     
 117.000           0.000            6.144e-01          -2.543e+01              84.802           6.036e-01             165.300           2.615e+01     
 118.000           0.000            6.425e-01          -2.524e+01              84.552           6.313e-01             165.298           2.599e+01     
 119.000           0.000            6.712e-01          -2.507e+01              84.319           6.596e-01             165.296           2.584e+01     
 120.000           0.000            7.004e-01          -2.491e+01              84.102           6.884e-01             165.294           2.571e+01     
 121.000           0.000            7.300e-01          -2.477e+01              83.899           7.178e-01             165.292           2.558e+01     
 122.000           0.000            7.601e-01          -2.463e+01              83.709           7.476e-01             165.290           2.548e+01     
 123.000           0.000            7.906e-01          -2.451e+01              83.531           7.778e-01             165.288           2.538e+01     
 124.000           0.000            8.215e-01          -2.440e+01              83.364           8.084e-01             165.285           2.529e+01     
 125.000           0.000            8.526e-01          -2.430e+01              83.207           8.394e-01             165.282           2.522e+01     
 126.000           0.000            8.841e-01          -2.421e+01              83.059           8.706e-01             165.280           2.516e+01     
 127.000           0.000            9.157e-01          -2.413e+01              82.921           9.021e-01             165.277           2.511e+01     
 128.000           0.000            9.476e-01          -2.406e+01              82.790           9.339e-01             165.274           2.507e+01     
 129.000           0.000            9.796e-01          -2.400e+01              82.666           9.658e-01             165.271           2.504e+01     
 130.000           0.000            1.012e+00          -2.395e+01              82.549           9.979e-01             165.268           2.502e+01     
 131.000           0.000            1.044e+00          -2.391e+01              82.439           1.030e+00             165.265           2.501e+01     
 132.000           0.000            1.076e+00          -2.388e+01              82.335           1.062e+00             165.262           2.501e+01     
 133.000           0.000            1.108e+00          -2.387e+01              82.237           1.095e+00             165.259           2.502e+01     
 134.000           0.000            1.141e+00          -2.386e+01              82.143           1.127e+00             165.256           2.505e+01     
 135.000           0.000            1.173e+00          -2.386e+01              82.055           1.159e+00             165.253           2.508e+01     
 136.000           0.000            1.205e+00          -2.387e+01              81.971           1.191e+00             165.249           2.512e+01     
 137.000           0.000            1.236e+00          -2.389e+01              81.892           1.223e+00             165.246           2.517e+01     
 138.000           0.000            1.268e+00          -2.392e+01              81.817           1.255e+00             165.243           2.523e+01     
 139.000           0.000            1.299e+00          -2.396e+01              81.745           1.286e+00             165.240           2.531e+01     
 140.000           0.000            1.331e+00          -2.402e+01              81.678           1.318e+00             165.237           2.539e+01     
 141.000           0.000            1.361e+00          -2.408e+01              81.613           1.349e+00             165.234           2.548e+01     
 142.000           0.000            1.392e+00          -2.415e+01              81.552           1.380e+00             165.230           2.559e+01     
 143.000           0.000            1.422e+00          -2.424e+01              81.494           1.410e+00             165.227           2.570e+01     
 144.000           0.000            1.452e+00          -2.433e+01              81.439           1.440e+00             165.224           2.582e+01     
 145.000           0.000            1.481e+00          -2.444e+01              81.387           1.470e+00             165.221           2.596e+01     
 146.000           0.000            1.510e+00          -2.456e+01              81.337           1.499e+00             165.218           2.611e+01     
 147.000           0.000            1.538e+00          -2.469e+01              81.290           1.528e+00             165.215           2.626e+01     
 148.000           0.000            1.566e+00          -2.483e+01              81.246           1.556e+00             165.212           2.644e+01     
 149.000           0.000            1.593e+00          -2.499e+01              81.203           1.583e+00             165.209           2.662e+01     
 150.000           0.000            1.620e+00          -2.516e+01              81.163           1.610e+00             165.207           2.681e+01     
 151.000           0.000            1.646e+00          -2.534e+01              81.125           1.637e+00             165.204           2.702e+01     
 152.000           0.000            1.671e+00          -2.554e+01              81.088           1.663e+00             165.201           2.725e+01     
 153.000           0.000            1.696e+00          -2.575e+01              81.054           1.688e+00             165.199           2.748e+01     
 154.000           0.000            1.720e+00          -2.598e+01              81.021           1.712e+00             165.196           2.774e+01     
 155.000           0.000            1.743e+00          -2.623e+01              80.991           1.736e+00             165.194           2.801e+01     
 156.000           0.000            1.766e+00          -2.649e+01              80.961           1.759e+00             165.191           2.829e+01     
 157.000           0.000            1.788e+00          -2.677e+01              80.934           1.782e+00             165.189           2.860e+01     
 158.000           0.000            1.809e+00          -2.708e+01              80.908           1.803e+00             165.187           2.892e+01     
 159.000           0.000            1.829e+00          -2.740e+01              80.883           1.824e+00             165.185           2.927e+01     
 160.000           0.000            1.848e+00          -2.775e+01              80.860           1.844e+00             165.183           2.964e+01     
 161.000           0.000            1.867e+00          -2.813e+01              80.839           1.863e+00             165.181           3.003e+01     
 162.000           0.000            1.885e+00          -2.853e+01              80.818           1.881e+00             165.179           3.045e+01     
 163.000           0.000            1.902e+00          -2.896e+01              80.799           1.898e+00             165.177           3.090e+01     
 164.000           0.000            1.918e+00          -2.943e+01              80.781           1.915e+00             165.175           3.139e+01     
 165.000           0.000            1.933e+00          -2.993e+01              80.765           1.930e+00             165.174           3.191e+01     
 166.000           0.000            1.947e+00          -3.048e+01              80.749           1.945e+00             165.172           3.247e+01     
 167.000           0.000            1.960e+00          -3.108e+01              80.735           1.958e+00             165.171           3.308e+01     
 168.000           0.000            1.973e+00          -3.173e+01              80.722           1.971e+00             165.170           3.374e+01     
 169.000           0.000            1.984e+00          -3.244e+01              80.710           1.983e+00             165.169           3.446e+01     
 170.000           0.000            1.995e+00          -3.323e+01              80.699           1.993e+00             165.167           3.527e+01     
 171.000           0.000            2.004e+00          -3.411e+01              80.689           2.003e+00             165.167           3.616e+01     
 172.000           0.000            2.013e+00          -3.511e+01              80.680           2.012e+00             165.166           3.716e+01     
 173.000           0.000            2.020e+00          -3.624e+01              80.671           2.020e+00             165.165           3.830e+01     
 174.000           0.000            2.027e+00          -3.755e+01              80.664           2.026e+00             165.164           3.962e+01     
 175.000           0.000            2.032e+00          -3.912e+01              80.657           2.032e+00             165.164           4.000e+01     
 176.000           0.000            2.037e+00          -4.104e+01              80.650           2.037e+00             165.163           4.000e+01     
 177.000           0.000            2.040e+00          -4.353e+01              80.643           2.040e+00             165.163           4.000e+01     
 178.000           0.000            2.043e+00          -4.704e+01              80.633           2.043e+00             165.162           4.000e+01     
 179.000           0.000            2.044e+00          -5.306e+01              80.609           2.044e+00             165.162           4.000e+01     
 180.000           0.000            2.045e+00          -1.054e+02             279.145           2.045e+00             165.162           4.000e+01     
 179.000         180.000            2.044e+00          -5.304e+01             260.698           2.044e+00             165.162           4.000e+01     
 178.000         180.000            2.043e+00          -4.703e+01             260.677           2.043e+00             165.162           4.000e+01     
 177.000         180.000            2.040e+00          -4.352e+01             260.673           2.040e+00             165.163           4.000e+01     
 176.000         180.000            2.037e+00          -4.104e+01             260.672           2.037e+00             165.163           4.000e+01     
 175.000         180.000            2.032e+00          -3.911e+01             260.675           2.032e+00             165.164           4.000e+01     
 174.000         180.000            2.027e+00          -3.755e+01             260.679           2.026e+00             165.164           3.962e+01     
 173.000         180.000            2.020e+00          -3.624e+01             260.684           2.020e+00             165.165           3.830e+01     
 172.000         180.000            2.013e+00          -3.510e+01             260.691           2.012e+00             165.166           3.715e+01     
 171.000         180.000            2.004e+00          -3.411e+01             260.699           2.003e+00             165.167           3.615e+01     
 170.000         180.000            1.995e+00          -3.323e+01             260.708           1.993e+00             165.167           3.526e+01     
 169.000         180.000            1.984e+00          -3.244e+01             260.718           1.983e+00             165.169           3.446e+01     
 168.000         180.000            1.973e+00          -3.172e+01             260.729           1.971e+00             165.170           3.374e+01     
 167.000         180.000            1.960e+00          -3.107e+01             260.742           1.958e+00             165.171           3.307e+01     
 166.000         180.000            1.947e+00          -3.048e+01             260.756           1.945e+00             165.172           3.247e+01     
 165.000         180.000            1.933e+00          -2.993e+01             260.771           1.930e+00             165.174           3.190e+01     
 164.000         180.000            1.918e+00          -2.943e+01             260.787           1.915e+00             165.175           3.138e+01     
 163.000         180.000            1.902e+00          -2.896e+01             260.804           1.898e+00             165.177           3.090e+01     
 162.000         180.000            1.885e+00          -2.853e+01             260.823           1.881e+00             165.179           3.045e+01     
 161.000         180.000            1.867e+00          -2.812e+01             260.843           1.863e+00             165.181           3.003e+01     
 160.000         180.000            1.848e+00          -2.775e+01             260.865           1.844e+00             165.183           2.964e+01     
 159.000         180.000            1.829e+00          -2.740e+01             260.888           1.824e+00             165.185           2.927e+01     
 158.000         180.000            1.809e+00          -2.708e+01             260.912           1.803e+00             165.187           2.892e+01     
 157.000         180.000            1.788e+00          -2.677e+01             260.938           1.782e+00             165.189           2.860e+01     
 156.000         180.000            1.766e+00          -2.649e+01             260.965           1.759e+00             165.191           2.829e+01     
 155.000         180.000            1.743e+00          -2.623e+01             260.994           1.736e+00             165.194           2.801e+01     
 154.000         180.000            1.720e+00          -2.598e+01             261.025           1.712e+00             165.196           2.774e+01     
 153.000         180.000            1.696e+00          -2.575e+01             261.057           1.688e+00             165.199           2.748e+01     
 152.000         180.000            1.671e+00          -2.554e+01             261.091           1.663e+00             165.201           2.725e+01     
 151.000         180.000            1.646e+00          -2.534e+01             261.128           1.637e+00             165.204           2.702e+01     
 150.000         180.000            1.620e+00          -2.516e+01             261.166           1.610e+00             165.207           2.681e+01     
 149.000         180.000            1.593e+00          -2.499e+01             261.206           1.583e+00             165.209           2.662e+01     
 148.000         180.000            1.566e+00          -2.483e+01             261.248           1.556e+00             165.212           2.643e+01     
 147.000         180.000            1.538e+00          -2.469e+01             261.293           1.528e+00             165.215           2.626e+01     
 146.000         180.000            1.510e+00          -2.456e+01             261.340           1.499e+00             165.218           2.611e+01     
 145.000         180.000            1.481e+00          -2.444e+01             261.390           1.470e+00             165.221           2.596e+01     
 144.000         180.000            1.452e+00          -2.433e+01             261.442           1.440e+00             165.224           2.582e+01     
 143.000         180.000            1.422e+00          -2.424e+01             261.497           1.410e+00             165.227           2.570e+01     
 142.000         180.000            1.392e+00          -2.415e+01             261.555           1.380e+00             165.230           2.558e+01     
 141.000         180.000            1.361e+00          -2.408e+01             261.616           1.349e+00             165.234           2.548e+01     
 140.000         180.000            1.331e+00          -2.402e+01             261.680           1.318e+00             165.237           2.539e+01     
 139.000         180.000            1.299e+00          -2.396e+01             261.748           1.286e+00             165.240           2.531e+01     
 138.000         180.000            1.268e+00          -2.392e+01             261.819           1.255e+00             165.243           2.523e+01     
 137.000         180.000            1.236e+00          -2.389e+01             261.894           1.223e+00             165.246           2.517e+01     
 136.000         180.000            1.205e+00          -2.387e+01             261.973           1.191e+00             165.249           2.512e+01     
 135.000         180.000            1.173e+00          -2.386e+01             262.057           1.159e+00             165.253           2.508e+01     
 134.000         180.000            1.141e+00          -2.386e+01             262.145           1.127e+00             165.256           2.505e+01     
 133.000         180.000            1.108e+00          -2.386e+01             262.238           1.095e+00             165.259           2.502e+01     
 132.000         180.000            1.076e+00          -2.388e+01             262.337           1.062e+00             165.262           2.501e+01     
 131.000         180.000            1.044e+00          -2.391e+01             262.441           1.030e+00             165.265           2.501e+01     
 130.000         180.000            1.012e+00          -2.395e+01             262.551           9.979e-01             165.268           2.502e+01     
 129.000         180.000            9.796e-01          -2.400e+01             262.668           9.658e-01             165.271           2.504e+01     
 128.000         180.000            9.476e-01          -2.406e+01             262.791           9.339e-01             165.274           2.507e+01     
 127.000         180.000            9.158e-01          -2.413e+01             262.922           9.021e-01             165.277           2.511e+01     
 126.000         180.000            8.841e-01          -2.421e+01             263.061           8.706e-01             165.280           2.516e+01     
 125.000         180.000            8.526e-01          -2.430e+01             263.209           8.394e-01             165.282           2.522e+01     
 124.000         180.000            8.215e-01          -2.440e+01             263.365           8.084e-01             165.285           2.529e+01     
 123.000         180.000            7.906e-01          -2.451e+01             263.532           7.778e-01             165.288           2.538e+01     
 122.000         180.000            7.601e-01          -2.463e+01             263.710           7.476e-01             165.290           2.547e+01     
 121.000         180.000            7.300e-01          -2.477e+01             263.900           7.178e-01             165.292           2.558e+01     
 120.000         180.000            7.004e-01          -2.491e+01             264.103           6.884e-01             165.294           2.571e+01     
 119.000         180.000            6.712e-01          -2.507e+01             264.320           6.596e-01             165.296           2.584e+01     
 118.000         180.000            6.425e-01          -2.524e+01             264.553           6.313e-01             165.298           2.599e+01     
 117.000         180.000            6.144e-01          -2.543e+01             264.803           6.036e-01             165.300           2.615e+01     
 116.000         180.000            5.869e-01          -2.562e+01             265.071           5.765e-01             165.302           2.633e+01     
 115.000         180.000            5.601e-01          -2.583e+01             265.361           5.501e-01             165.303           2.652e+01     
 114.000         180.000            5.339e-01          -2.606e+01             265.674           5.243e-01             165.304           2.673e+01     
 113.000         180.000            5.084e-01          -2.630e+01             266.012           4.993e-01             165.305           2.695e+01     
 112.000         180.000            4.837e-01          -2.656e+01             266.379           4.751e-01             165.306           2.720e+01     
 111.000         180.000            4.597e-01          -2.683e+01             266.779           4.516e-01             165.306           2.746e+01     
 110.000         180.000            4.366e-01          -2.712e+01             267.215           4.290e-01             165.307           2.774e+01     
 109.000         180.000            4.143e-01          -2.743e+01             267.692           4.072e-01             165.307           2.805e+01     
 108.000         180.000            3.930e-01          -2.776e+01             268.215           3.863e-01             165.307           2.837e+01     
 107.000         180.000            3.725e-01          -2.812e+01             268.793           3.664e-01             165.306           2.873e+01     
 106.000         180.000            3.531e-01          -2.849e+01             269.432           3.474e-01             165.306           2.911e+01     
 105.000         180.000            3.346e-01          -2.889e+01             270.142           3.294e-01             165.305           2.952e+01     
 104.000         180.000            3.171e-01          -2.932e+01             270.935           3.124e-01             165.304           2.996e+01     
 103.000         180.000            3.006e-01          -2.978e+01             271.826           2.964e-01             165.302           3.044e+01     
 102.000         180.000            2.853e-01          -3.026e+01             272.832           2.814e-01             165.301           3.096e+01     
 101.000         180.000            2.710e-01          -3.078e+01             273.977           2.676e-01             165.299           3.152e+01     
 100.000         180.000            2.578e-01          -3.134e+01             275.288           2.548e-01             165.296           3.214e+01     
  99.000         180.000            2.458e-01          -3.194e+01             276.802           2.432e-01             165.294           3.281e+01     
  98.000         180.000            2.350e-01          -3.259e+01             278.565           2.327e-01             165.291           3.356e+01     
  97.000         180.000            2.253e-01          -3.328e+01             280.640           2.233e-01             165.288           3.439e+01     
  96.000         180.000            2.168e-01          -3.403e+01             283.108           2.151e-01             165.284           3.531e+01     
  95.000         180.000            2.095e-01          -3.484e+01             286.077           2.081e-01             165.280           3.636e+01     
  94.000         180.000            2.034e-01          -3.570e+01             289.694           2.023e-01             165.276           3.757e+01     
  93.000         180.000            1.985e-01          -3.661e+01             294.151           1.976e-01             165.272           3.898e+01     
  92.000         180.000            1.949e-01          -3.756e+01             299.697           1.942e-01             165.267           4.000e+01     
  91.000         180.000            1.925e-01          -3.853e+01             306.633           1.919e-01             165.262           4.000e+01     
  90.000         180.000            1.914e-01          -3.943e+01             315.251           1.909e-01             165.257           4.000e+01     
  89.000         180.000            1.915e-01          -4.017e+01             325.688           1.911e-01             165.251           4.000e+01     
  88.000         180.000            1.928e-01          -4.063e+01             337.684           1.925e-01             165.245           4.000e+01     
  87.000         180.000            1.954e-01          -4.068e+01             350.394           1.951e-01             165.238           4.000e+01     
  86.000         180.000            1.992e-01          -4.033e+01               2.632           1.988e-01             165.232           4.000e+01     
  85.000         180.000            2.043e-01          -3.965e+01              13.444           2.038e-01             165.225           4.000e+01     
  84.000         180.000            2.106e-01          -3.880e+01              22.448           2.100e-01             165.217           4.000e+01     
  83.000         180.000            2.180e-01          -3.786e+01              29.719           2.174e-01             165.210           4.000e+01     
  82.000         180.000            2.267e-01          -3.692e+01              35.535           2.259e-01             165.202           3.942e+01     
  81.000         180.000            2.366e-01          -3.602e+01              40.201           2.355e-01             165.194           3.799e+01     
  80.000         180.000            2.476e-01          -3.517e+01              43.978           2.464e-01             165.185           3.677e+01     
  79.000         180.000            2.598e-01          -3.437e+01              47.071           2.583e-01             165.176           3.572e+01     
  78.000         180.000            2.731e-01          -3.363e+01              49.635           2.713e-01             165.167           3.480e+01     
  77.000         180.000            2.875e-01          -3.295e+01              51.786           2.854e-01             165.158           3.398e+01     
  76.000         180.000            3.030e-01          -3.232e+01              53.610           3.006e-01             165.149           3.325e+01     
  75.000         180.000            3.195e-01          -3.173e+01              55.172           3.168e-01             165.139           3.258e+01     
  74.000         180.000            3.371e-01          -3.118e+01              56.523           3.340e-01             165.129           3.198e+01     
  73.000         180.000            3.557e-01          -3.067e+01              57.700           3.523e-01             165.118           3.143e+01     
  72.000         180.000            3.752e-01          -3.020e+01              58.733           3.714e-01             165.108           3.093e+01     
  71.000         180.000            3.957e-01          -2.976e+01              59.647           3.916e-01             165.097           3.047e+01     
  70.000         180.000            4.172e-01          -2.935e+01              60.459           4.126e-01             165.086           3.005e+01     
  69.000         180.000            4.394e-01          -2.897e+01              61.186           4.345e-01             165.075           2.966e+01     
  68.000         180.000            4.626e-01          -2.861e+01              61.839           4.572e-01             165.064           2.930e+01     
  67.000         180.000            4.865e-01          -2.828e+01              62.428           4.807e-01             165.052           2.897e+01     
  66.000         180.000            5.112e-01          -2.796e+01              62.962           5.050e-01             165.041           2.866e+01     
  65.000         180.000            5.366e-01          -2.767e+01              63.448           5.301e-01             165.029           2.838e+01     
  64.000         180.000            5.628e-01          -2.740e+01              63.892           5.558e-01             165.017           2.812e+01     
  63.000         180.000            5.895e-01          -2.715e+01              64.298           5.822e-01             165.005           2.788e+01     
  62.000         180.000            6.170e-01          -2.691e+01              64.672           6.093e-01             164.993           2.766e+01     
  61.000         180.000            6.449e-01          -2.669e+01              65.016           6.369e-01             164.981           2.746e+01     
  60.000         180.000            6.735e-01          -2.649e+01              65.333           6.651e-01             164.968           2.727e+01     
  59.000         180.000            7.025e-01          -2.630e+01              65.627           6.938e-01             164.956           2.711e+01     
  58.000         180.000            7.320e-01          -2.612e+01              65.899           7.230e-01             164.944           2.695e+01     
  57.000         180.000            7.618e-01          -2.596e+01              66.152           7.526e-01             164.931           2.682e+01     
  56.000         180.000            7.921e-01          -2.582e+01              66.388           7.826e-01             164.919           2.669e+01     
  55.000         180.000            8.227e-01          -2.568e+01              66.608           8.130e-01             164.906           2.659e+01     
  54.000         180.000            8.536e-01          -2.556e+01              66.813           8.437e-01             164.894           2.649e+01     
  53.000         180.000            8.848e-01          -2.545e+01              67.005           8.747e-01             164.881           2.641e+01     
  52.000         180.000            9.161e-01          -2.535e+01              67.185           9.059e-01             164.869           2.634e+01     
  51.000         180.000            9.477e-01          -2.527e+01              67.353           9.373e-01             164.856           2.628e+01     
  50.000         180.000            9.793e-01          -2.520e+01              67.511           9.688e-01             164.844           2.624e+01     
  49.000         180.000            1.011e+00          -2.513e+01              67.660           1.000e+00             164.831           2.620e+01     
  48.000         180.000            1.043e+00          -2.508e+01              67.800           1.032e+00             164.819           2.618e+01     
  47.000         180.000            1.075e+00          -2.504e+01              67.932           1.064e+00             164.807           2.617e+01     
  46.000         180.000            1.106e+00          -2.501e+01              68.056           1.096e+00             164.795           2.617e+01     
  45.000         180.000            1.138e+00          -2.500e+01              68.173           1.128e+00             164.783           2.618e+01     
  44.000         180.000            1.170e+00          -2.499e+01              68.283           1.159e+00             164.771           2.621e+01     
  43.000         180.000            1.201e+00          -2.499e+01              68.388           1.191e+00             164.759           2.624e+01     
  42.000         180.000            1.233e+00          -2.501e+01              68.487           1.222e+00             164.747           2.628e+01     
  41.000         180.000            1.264e+00          -2.504e+01              68.580           1.253e+00             164.736           2.634e+01     
  40.000         180.000            1.294e+00          -2.507e+01              68.668           1.284e+00             164.724           2.641e+01     
  39.000         180.000            1.325e+00          -2.512e+01              68.752           1.315e+00             164.713           2.648e+01     
  38.000         180.000            1.355e+00          -2.518e+01              68.831           1.345e+00             164.702           2.657e+01     
  37.000         180.000            1.385e+00          -2.525e+01              68.905           1.376e+00             164.691           2.667e+01     
  36.000         180.000            1.414e+00          -2.534e+01              68.976           1.405e+00             164.681           2.679e+01     
  35.000         180.000            1.443e+00          -2.543e+01              69.044           1.435e+00             164.670           2.691e+01     
  34.000         180.000            1.472e+00          -2.554e+01              69.107           1.463e+00             164.660           2.705e+01     
  33.000         180.000            1.500e+00          -2.566e+01              69.168           1.492e+00             164.650           2.719e+01     
  32.000         180.000            1.528e+00          -2.579e+01              69.225           1.520e+00             164.640           2.735e+01     
  31.000         180.000            1.555e+00          -2.594e+01              69.279           1.547e+00             164.631           2.753e+01     
  30.000         180.000            1.581e+00          -2.610e+01              69.330           1.574e+00             164.621           2.771e+01     
  29.000         180.000            1.607e+00          -2.628e+01              69.379           1.600e+00             164.612           2.791e+01     
  28.000         180.000            1.632e+00          -2.647e+01              69.425           1.626e+00             164.603           2.813e+01     
  27.000         180.000            1.657e+00          -2.667e+01              69.468           1.650e+00             164.595           2.836e+01     
  26.000         180.000            1.681e+00          -2.689e+01              69.509           1.675e+00             164.586           2.860e+01     
  25.000         180.000            1.704e+00          -2.713e+01              69.548           1.698e+00             164.578           2.887e+01     
  24.000         180.000            1.726e+00          -2.739e+01              69.585           1.721e+00             164.570           2.915e+01     
  23.000         180.000            1.748e+00          -2.767e+01              69.620           1.743e+00             164.563           2.944e+01     
  22.000         180.000            1.769e+00          -2.797e+01              69.652           1.765e+00             164.556           2.976e+01     
  21.000         180.000            1.789e+00          -2.829e+01              69.683           1.785e+00             164.549           3.010e+01     
  20.000         180.000            1.809e+00          -2.863e+01              69.712           1.805e+00             164.542           3.047e+01     
  19.000         180.000            1.827e+00          -2.900e+01              69.739           1.824e+00             164.536           3.085e+01     
  18.000         180.000            1.845e+00          -2.940e+01              69.765           1.842e+00             164.530           3.127e+01     
  17.000         180.000            1.862e+00          -2.983e+01              69.789           1.859e+00             164.524           3.171e+01     
  16.000         180.000            1.878e+00          -3.029e+01              69.811           1.875e+00             164.519           3.219e+01     
  15.000         180.000            1.893e+00          -3.079e+01              69.832           1.891e+00             164.513           3.271e+01     
  14.000         180.000            1.907e+00          -3.133e+01              69.851           1.905e+00             164.509           3.327e+01     
  13.000         180.000            1.920e+00          -3.193e+01              69.869           1.919e+00             164.504           3.387e+01     
  12.000         180.000            1.933e+00          -3.257e+01              69.886           1.931e+00             164.500           3.453e+01     
  11.000         180.000            1.944e+00          -3.328e+01              69.901           1.943e+00             164.496           3.526e+01     
  10.000         180.000            1.954e+00          -3.407e+01              69.915           1.953e+00             164.493           3.605e+01     
   9.000         180.000            1.964e+00          -3.495e+01              69.927           1.963e+00             164.489           3.694e+01     
   8.000         180.000            1.972e+00          -3.594e+01              69.939           1.972e+00             164.487           3.794e+01     
   7.000         180.000            1.980e+00          -3.707e+01              69.949           1.979e+00             164.484           3.908e+01     
   6.000         180.000            1.986e+00          -3.839e+01              69.959           1.986e+00             164.482           4.000e+01     
   5.000         180.000            1.992e+00          -3.995e+01              69.968           1.992e+00             164.480           4.000e+01     
   4.000         180.000            1.996e+00          -4.187e+01              69.977           1.996e+00             164.479           4.000e+01     
   3.000         180.000            2.000e+00          -4.435e+01              69.987           2.000e+00             164.477           4.000e+01     
   2.000         180.000            2.002e+00          -4.786e+01              70.002           2.002e+00             164.477           4.000e+01     
   1.000         180.000            2.004e+00          -5.387e+01              70.039           2.004e+00             164.476           4.000e+01     
